;; Nechad A and B
;;
;; wavelength (nm), A, B, Rsq
;; created from tables on REMSEM website
;; QV 2016-05-20
;;
520	167.69	2.83	53.8
522.5	161.48	2.87	53.8
525	162.17	2.72	53.8
527.5	155.27	2.89	53.7
530	148.37	2.97	53.7
532.5	147.68	2.87	53.7
535	140.09	3.07	53.7
537.5	138.71	2.99	53.7
540	130.43	3.21	53.7
542.5	129.74	3.11	53.7
545	122.15	3.32	53.7
547.5	121.46	3.23	53.9
550	120.77	3.14	53.9
552.5	113.17	3.44	54
555	111.79	3.35	53.9
557.5	104.89	3.6	53.8
560	104.2	3.47	53.7
562.5	97.3	3.74	53.5
565	97.99	3.62	53.4
567.5	91.78	3.92	53.3
570	93.16	3.74	53.3
572.5	89.02	3.97	53.5
575	93.16	3.72	54.1
577.5	93.16	3.78	55.2
580	95.92	3.74	56.7
582.5	98.68	3.73	57.8
585	80.74	4.34	54.3
587.5	84.19	4.37	56.6
590	93.85	4.08	59.1
592.5	109.72	3.58	61.9
595	124.91	3.26	64.5
597.5	138.02	3.14	66.8
600	155.61	2.87	68.6
602.5	162.61	2.9	70
605	174.82	2.83	71.1
607.5	184.42	2.69	71.9
610	191.73	2.66	72.4
612.5	198.36	2.54	72.9
615	203.69	2.53	73.2
617.5	208.81	2.52	73.6
620	213.55	2.42	73.9
622.5	217.73	2.42	74.2
625	221.78	2.42	74.4
627.5	225.15	2.42	74.7
630	229.45	2.32	74.9
632.5	234.85	2.3	75.3
635	239.94	2.29	75.6
637.5	245.08	2.28	75.9
640	249.96	2.26	76.2
642.5	254.6	2.24	76.5
645	253.51	2.32	76.7
647.5	260.09	2.2	77
650	268.95	2.17	77.2
652.5	280.36	2.14	77.6
655	289.29	2.1	77.9
657.5	307.78	1.96	78.2
660	327.84	1.91	78.5
662.5	342.56	1.84	78.7
665	355.85	1.74	78.9
667.5	374.11	1.61	79.1
670	384.11	1.44	79.4
672.5	391.38	1.26	79.7
675	401.61	1.09	80
677.5	403.49	1.04	80.4
680	408.84	0.82	80.7
682.5	400.68	0.87	81
685	396.87	0.84	81.3
687.5	394.57	0.85	81.5
690	394.2	0.9	81.7
692.5	402.74	0.96	81.9
695	414.72	1.02	82.1
697.5	430.21	1.08	82.3
700	445.11	1.13	82.5
702.5	468.13	1.15	82.6
705	493.65	1.16	82.8
707.5	526.68	1.15	82.9
710	561.94	1.23	82.9
712.5	606.12	1.19	82.9
715	649.78	1.25	82.7
717.5	708.16	1.17	82.5
720	774.27	1.17	82.2
722.5	861.11	1.16	82
725	966.39	1.12	81.7
727.5	1086.85	1.07	81.2
730	1229.15	1.02	80.4
732.5	1374.86	0.98	79.5
735	1491.46	1.06	78.5
737.5	1592.19	1.09	77.6
740	1664.72	1.14	76.7
742.5	1725.83	1.12	76.1
745	1754.77	1.22	75.6
747.5	1781.18	1.24	75.3
750	1804.05	1.27	75
752.5	1815.54	1.27	74.5
755	1822.38	1.28	74.3
757.5	1789.22	1.3	74.6
760	1750.72	1.34	74.7
762.5	1736.96	1.39	74.9
765	1795.66	1.38	75.5
767.5	1851.11	1.41	75.3
770	1894.33	1.37	75.3
772.5	1889.64	1.43	75.3
775	1866.93	1.47	75.1
777.5	1834.05	1.53	75.2
780	1802.62	1.57	75.3
782.5	1787.56	1.5	75.5
785	1760.19	1.54	75.7
787.5	1724.54	1.59	76
790	1701.46	1.54	76.3
792.5	1667.3	1.58	76.6
795	1646.43	1.53	76.9
797.5	1619.05	1.56	77.3
800	1596.41	1.58	77.5
802.5	1573.61	1.61	77.7
805	1562.74	1.63	77.8
807.5	1552.21	1.64	77.7
810	1548.63	1.65	77.7
812.5	1552.99	1.65	77.8
815	1570.74	1.64	77.6
817.5	1613.05	1.59	77.7
820	1664.01	1.65	77.3
822.5	1763.64	1.58	76.6
825	1867.44	1.6	75.9
827.5	1996.74	1.6	74.7
830	2125.12	1.72	73.4
832.5	2267.88	1.71	72.1
835	2379.77	1.8	70.8
837.5	2481.42	1.83	69.7
840	2543.56	1.92	68.5
842.5	2601.28	1.93	67.7
845	2646.87	2	67
847.5	2697.96	2	66.4
850	2719.82	2.08	65.8
852.5	2780.02	2.03	65.4
855	2814.06	2.12	64.8
857.5	2870.4	2.11	64.2
860	2905.11	2.21	63.8
862.5	2924.54	2.28	63.1
865	2971.93	2.3	62.7
867.5	3016.31	2.32	61.9
870	3050.06	2.4	61.2
872.5	3104.12	2.45	60.7
875	3161.9	2.46	60
877.5	3199.96	2.58	59.1
880	3251.89	2.65	58.4
882.5	3318.38	2.65	57.6
885	3388.53	2.68	56.6
